File: dat/msa/Si-Cal-20kV/Si-20kV-S5-P4-4K.msa
#FORMAT      : EMSA/MAS Spectral Data File
#VERSION     : 1.0
#TITLE       : Si-20kV-S5-P4-4K
#DATE        : 16-SEP-2016
#TIME        : 11:25
#OWNER       : John Minter
#NPOINTS     : 4096.0
#NCOLUMNS    : 1.0
#XUNITS      : keV
#YUNITS      : counts
#DATATYPE    : XY
#XPERCHAN    : 0.005
#OFFSET      : -0.2
#SIGNALTYPE  : EDS
#CHOFFSET    : 40.0
#LIVETIME    : 100.0
#REALTIME    : 194.339
#BEAMKV      : 20.0
#PROBECUR    : 3.49
#MAGCAM      : 8000.0
#XTILTSTGE   : 0.0
#AZIMANGLE   : 0.0
#ELEVANGLE   : 35.0
#XPOSITION mm: 1.6240
#YPOSITION mm: -1.3010
#ZPOSITION mm: 4.7660
##OXINSTPT   : 4
##OXINSTSTROB: 48.13
##OXINSTELEMS: 14,6
##OXINSTLABEL: 14, 1.740, Si
##OXINSTLABEL: 6, 0.277, C
#SPECTRUM    : Spectral Data Starts Here
-0.20000, 0.0
-0.13000, 0.0
-0.06000, 4.0
0.01000, 1407.0
0.08000, 1236.0
0.15000, 295.0
0.22000, 260.0
0.29000, 534.0
0.36000, 235.0
0.43000, 405.0
0.50000, 716.0
0.57000, 640.0
0.64000, 931.0
0.71000, 1136.0
0.78000, 1453.0
0.85000, 1730.0
0.92000, 1848.0
0.99000, 2065.0
1.06000, 2217.0
1.13000, 2264.0
1.20000, 2366.0
1.27000, 2459.0
1.34000, 2571.0
1.41000, 2818.0
1.48000, 3292.0
1.55000, 3874.0
1.62000, 4306.0
1.69000, 126215.0
1.76000, 355444.0
1.83000, 34138.0
1.90000, 4054.0
1.97000, 676.0
2.04000, 644.0
2.11000, 641.0
2.18000, 633.0
2.25000, 679.0
2.32000, 708.0
2.39000, 749.0
2.46000, 813.0
2.53000, 812.0
2.60000, 823.0
2.67000, 865.0
2.74000, 879.0
2.81000, 847.0
2.88000, 888.0
2.95000, 849.0
3.02000, 899.0
3.09000, 873.0
3.16000, 877.0
3.23000, 912.0
3.30000, 945.0
3.37000, 1219.0
3.44000, 6086.0
3.51000, 8727.0
3.58000, 2412.0
3.65000, 918.0
3.72000, 733.0
3.79000, 691.0
3.86000, 677.0
3.93000, 681.0
4.00000, 654.0
4.07000, 651.0
4.14000, 643.0
4.21000, 661.0
4.28000, 629.0
4.35000, 626.0
4.42000, 615.0
4.49000, 627.0
4.56000, 616.0
4.63000, 577.0
4.70000, 571.0
4.77000, 603.0
4.84000, 595.0
4.91000, 558.0
4.98000, 564.0
5.05000, 573.0
5.12000, 547.0
5.19000, 696.0
5.26000, 700.0
5.33000, 568.0
5.40000, 513.0
5.47000, 482.0
5.54000, 482.0
5.61000, 489.0
5.68000, 432.0
5.75000, 473.0
5.82000, 442.0
5.89000, 448.0
5.96000, 457.0
6.03000, 420.0
6.10000, 434.0
6.17000, 440.0
6.24000, 394.0
6.31000, 387.0
6.38000, 414.0
6.45000, 412.0
6.52000, 394.0
6.59000, 391.0
6.66000, 382.0
6.73000, 369.0
6.80000, 348.0
6.87000, 350.0
6.94000, 337.0
7.01000, 347.0
7.08000, 367.0
7.15000, 334.0
7.22000, 337.0
7.29000, 294.0
7.36000, 319.0
7.43000, 290.0
7.50000, 301.0
7.57000, 292.0
7.64000, 271.0
7.71000, 291.0
7.78000, 280.0
7.85000, 268.0
7.92000, 286.0
7.99000, 285.0
8.06000, 263.0
8.13000, 273.0
8.20000, 273.0
8.27000, 267.0
8.34000, 289.0
8.41000, 262.0
8.48000, 245.0
8.55000, 242.0
8.62000, 250.0
8.69000, 219.0
8.76000, 237.0
8.83000, 234.0
8.90000, 231.0
8.97000, 231.0
9.04000, 226.0
9.11000, 220.0
9.18000, 211.0
9.25000, 217.0
9.32000, 216.0
9.39000, 189.0
9.46000, 209.0
9.53000, 200.0
9.60000, 207.0
9.67000, 187.0
9.74000, 188.0
9.81000, 211.0
9.88000, 189.0
9.95000, 201.0
10.02000, 173.0
10.09000, 162.0
10.16000, 192.0
10.23000, 165.0
10.30000, 134.0
10.37000, 164.0
10.44000, 165.0
10.51000, 143.0
10.58000, 161.0
10.65000, 155.0
10.72000, 151.0
10.79000, 152.0
10.86000, 142.0
10.93000, 139.0
11.00000, 135.0
11.07000, 131.0
11.14000, 153.0
11.21000, 133.0
11.28000, 122.0
11.35000, 141.0
11.42000, 128.0
11.49000, 116.0
11.56000, 116.0
11.63000, 117.0
11.70000, 116.0
11.77000, 113.0
11.84000, 118.0
11.91000, 102.0
11.98000, 122.0
12.05000, 112.0
12.12000, 108.0
12.19000, 102.0
12.26000, 97.0
12.33000, 105.0
12.40000, 89.0
12.47000, 95.0
12.54000, 93.0
12.61000, 78.0
12.68000, 88.0
12.75000, 81.0
12.82000, 81.0
12.89000, 72.0
12.96000, 75.0
13.03000, 82.0
13.10000, 70.0
13.17000, 79.0
13.24000, 69.0
13.31000, 74.0
13.38000, 69.0
13.45000, 66.0
13.52000, 64.0
13.59000, 61.0
13.66000, 57.0
13.73000, 57.0
13.80000, 58.0
13.87000, 65.0
13.94000, 65.0
14.01000, 57.0
14.08000, 56.0
14.15000, 66.0
14.22000, 61.0
14.29000, 56.0
14.36000, 44.0
14.43000, 46.0
14.50000, 45.0
14.57000, 41.0
14.64000, 37.0
14.71000, 41.0
14.78000, 51.0
14.85000, 43.0
14.92000, 34.0
14.99000, 34.0
15.06000, 40.0
15.13000, 43.0
15.20000, 45.0
15.27000, 41.0
15.34000, 43.0
15.41000, 44.0
15.48000, 35.0
15.55000, 35.0
15.62000, 39.0
15.69000, 34.0
15.76000, 31.0
15.83000, 29.0
15.90000, 26.0
15.97000, 28.0
16.04000, 33.0
16.11000, 24.0
16.18000, 27.0
16.25000, 22.0
16.32000, 19.0
16.39000, 20.0
16.46000, 24.0
16.53000, 21.0
16.60000, 18.0
16.67000, 16.0
16.74000, 19.0
16.81000, 19.0
16.88000, 14.0
16.95000, 21.0
17.02000, 16.0
17.09000, 21.0
17.16000, 21.0
17.23000, 19.0
17.30000, 17.0
17.37000, 17.0
17.44000, 21.0
17.51000, 11.0
17.58000, 21.0
17.65000, 8.0
17.72000, 17.0
17.79000, 10.0
17.86000, 11.0
17.93000, 15.0
18.00000, 11.0
18.07000, 5.0
18.14000, 6.0
18.21000, 8.0
18.28000, 4.0
18.35000, 9.0
18.42000, 11.0
18.49000, 7.0
18.56000, 6.0
18.63000, 8.0
18.70000, 7.0
18.77000, 5.0
18.84000, 5.0
18.91000, 5.0
18.98000, 2.0
19.05000, 2.0
19.12000, 9.0
19.19000, 4.0
19.26000, 4.0
19.33000, 2.0
19.40000, 3.0
19.47000, 3.0
19.54000, 1.0
19.61000, 0.0
19.68000, 3.0
19.75000, 3.0
19.82000, 5.0
19.89000, 2.0
19.96000, 1.0
20.03000, 2.0
20.10000, 0.0
20.17000, 2.0
20.24000, 2.0
20.27500, 1.0
#ENDOFDATA   :