File: dat/msa/Si-Cal-20kV/Si-20kV-S4-P4-2K.msa
#FORMAT      : EMSA/MAS Spectral Data File
#VERSION     : 1.0
#TITLE       : Si-20kV-S4-P4-2K
#DATE        : 16-SEP-2016
#TIME        : 11:14
#OWNER       : John Minter
#NPOINTS     : 2048.0
#NCOLUMNS    : 1.0
#XUNITS      : keV
#YUNITS      : counts
#DATATYPE    : XY
#XPERCHAN    : 0.005
#OFFSET      : -0.1
#SIGNALTYPE  : EDS
#CHOFFSET    : 20.0
#LIVETIME    : 100.0
#REALTIME    : 117.332
#BEAMKV      : 20.0
#PROBECUR    : 0.40
#MAGCAM      : 35000.0
#XTILTSTGE   : 0.0
#AZIMANGLE   : 0.0
#ELEVANGLE   : 35.0
#XPOSITION mm: 1.6870
#YPOSITION mm: -1.7090
#ZPOSITION mm: 4.7660
##OXINSTPT   : 4
##OXINSTSTROB: 48.02
##OXINSTELEMS: 14,6,8
##OXINSTLABEL: 14, 1.740, Si
##OXINSTLABEL: 6, 0.277, C
##OXINSTLABEL: 8, 0.525, O
#SPECTRUM    : Spectral Data Starts Here
-0.10000, 0.0
-0.06500, 1.0
-0.03000, 232.0
0.00500, 1507.0
0.04000, 2158.0
0.07500, 905.0
0.11000, 512.0
0.14500, 109.0
0.18000, 55.0
0.21500, 53.0
0.25000, 118.0
0.28500, 137.0
0.32000, 56.0
0.35500, 61.0
0.39000, 64.0
0.42500, 97.0
0.46000, 133.0
0.49500, 180.0
0.53000, 187.0
0.56500, 168.0
0.60000, 167.0
0.63500, 227.0
0.67000, 260.0
0.70500, 289.0
0.74000, 306.0
0.77500, 349.0
0.81000, 389.0
0.84500, 383.0
0.88000, 418.0
0.91500, 474.0
0.95000, 488.0
0.98500, 504.0
1.02000, 529.0
1.05500, 504.0
1.09000, 541.0
1.12500, 544.0
1.16000, 567.0
1.19500, 613.0
1.23000, 602.0
1.26500, 589.0
1.30000, 606.0
1.33500, 642.0
1.37000, 602.0
1.40500, 649.0
1.44000, 696.0
1.47500, 795.0
1.51000, 829.0
1.54500, 878.0
1.58000, 901.0
1.61500, 944.0
1.65000, 3234.0
1.68500, 24271.0
1.72000, 78536.0
1.75500, 91429.0
1.79000, 39613.0
1.82500, 9714.0
1.86000, 3579.0
1.89500, 1163.0
1.93000, 269.0
1.96500, 146.0
2.00000, 142.0
2.03500, 136.0
2.07000, 152.0
2.10500, 153.0
2.14000, 139.0
2.17500, 137.0
2.21000, 139.0
2.24500, 156.0
2.28000, 165.0
2.31500, 126.0
2.35000, 150.0
2.38500, 150.0
2.42000, 186.0
2.45500, 160.0
2.49000, 179.0
2.52500, 164.0
2.56000, 163.0
2.59500, 179.0
2.63000, 183.0
2.66500, 178.0
2.70000, 175.0
2.73500, 192.0
2.77000, 183.0
2.80500, 175.0
2.84000, 185.0
2.87500, 175.0
2.91000, 178.0
2.94500, 192.0
2.98000, 195.0
3.01500, 166.0
3.05000, 185.0
3.08500, 183.0
3.12000, 166.0
3.15500, 167.0
3.19000, 177.0
3.22500, 179.0
3.26000, 180.0
3.29500, 184.0
3.33000, 176.0
3.36500, 188.0
3.40000, 240.0
3.43500, 439.0
3.47000, 664.0
3.50500, 655.0
3.54000, 437.0
3.57500, 263.0
3.61000, 201.0
3.64500, 176.0
3.68000, 174.0
3.71500, 165.0
3.75000, 158.0
3.78500, 173.0
3.82000, 170.0
3.85500, 159.0
3.89000, 162.0
3.92500, 153.0
3.96000, 163.0
3.99500, 141.0
4.03000, 151.0
4.06500, 153.0
4.10000, 153.0
4.13500, 135.0
4.17000, 154.0
4.20500, 130.0
4.24000, 144.0
4.27500, 136.0
4.31000, 142.0
4.34500, 139.0
4.38000, 145.0
4.41500, 134.0
4.45000, 140.0
4.48500, 135.0
4.52000, 136.0
4.55500, 141.0
4.59000, 139.0
4.62500, 130.0
4.66000, 130.0
4.69500, 145.0
4.73000, 130.0
4.76500, 121.0
4.80000, 148.0
4.83500, 126.0
4.87000, 99.0
4.90500, 128.0
4.94000, 120.0
4.97500, 121.0
5.01000, 143.0
5.04500, 128.0
5.08000, 135.0
5.11500, 118.0
5.15000, 122.0
5.18500, 122.0
5.22000, 99.0
5.25500, 123.0
5.29000, 105.0
5.32500, 111.0
5.36000, 127.0
5.39500, 105.0
5.43000, 121.0
5.46500, 129.0
5.50000, 108.0
5.53500, 92.0
5.57000, 99.0
5.60500, 104.0
5.64000, 97.0
5.67500, 115.0
5.71000, 110.0
5.74500, 109.0
5.78000, 101.0
5.81500, 99.0
5.85000, 83.0
5.88500, 92.0
5.92000, 114.0
5.95500, 94.0
5.99000, 89.0
6.02500, 81.0
6.06000, 83.0
6.09500, 94.0
6.13000, 85.0
6.16500, 82.0
6.20000, 73.0
6.23500, 87.0
6.27000, 89.0
6.30500, 86.0
6.34000, 112.0
6.37500, 91.0
6.41000, 96.0
6.44500, 95.0
6.48000, 79.0
6.51500, 100.0
6.55000, 77.0
6.58500, 83.0
6.62000, 91.0
6.65500, 63.0
6.69000, 71.0
6.72500, 68.0
6.76000, 87.0
6.79500, 92.0
6.83000, 69.0
6.86500, 72.0
6.90000, 87.0
6.93500, 88.0
6.97000, 92.0
7.00500, 71.0
7.04000, 74.0
7.07500, 86.0
7.11000, 72.0
7.14500, 76.0
7.18000, 62.0
7.21500, 70.0
7.25000, 78.0
7.28500, 57.0
7.32000, 72.0
7.35500, 74.0
7.39000, 66.0
7.42500, 79.0
7.46000, 69.0
7.49500, 76.0
7.53000, 64.0
7.56500, 60.0
7.60000, 62.0
7.63500, 70.0
7.67000, 67.0
7.70500, 64.0
7.74000, 62.0
7.77500, 66.0
7.81000, 66.0
7.84500, 56.0
7.88000, 64.0
7.91500, 63.0
7.95000, 69.0
7.98500, 65.0
8.02000, 59.0
8.05500, 57.0
8.09000, 70.0
8.12500, 56.0
8.16000, 49.0
8.19500, 53.0
8.23000, 58.0
8.26500, 46.0
8.30000, 62.0
8.33500, 58.0
8.37000, 63.0
8.40500, 54.0
8.44000, 59.0
8.47500, 57.0
8.51000, 66.0
8.54500, 66.0
8.58000, 55.0
8.61500, 53.0
8.65000, 57.0
8.68500, 54.0
8.72000, 48.0
8.75500, 41.0
8.79000, 55.0
8.82500, 41.0
8.86000, 51.0
8.89500, 62.0
8.93000, 50.0
8.96500, 50.0
9.00000, 51.0
9.03500, 50.0
9.07000, 52.0
9.10500, 57.0
9.14000, 39.0
9.17500, 46.0
9.21000, 47.0
9.24500, 50.0
9.28000, 46.0
9.31500, 41.0
9.35000, 37.0
9.38500, 40.0
9.42000, 45.0
9.45500, 43.0
9.49000, 46.0
9.52500, 43.0
9.56000, 46.0
9.59500, 49.0
9.63000, 42.0
9.66500, 43.0
9.70000, 40.0
9.73500, 41.0
9.77000, 40.0
9.80500, 37.0
9.84000, 30.0
9.87500, 29.0
9.91000, 38.0
9.94500, 34.0
9.98000, 36.0
10.01500, 31.0
10.05000, 38.0
10.08500, 41.0
10.12000, 41.0
10.13500, 37.0
#ENDOFDATA   :