File: dat/msa/Si-Cal-20kV/Si-20kV-S4-P4-4K.msa
#FORMAT      : EMSA/MAS Spectral Data File
#VERSION     : 1.0
#TITLE       : Si-20kV-S4-P4-4K
#DATE        : 16-SEP-2016
#TIME        : 11:16
#OWNER       : John Minter
#NPOINTS     : 4096.0
#NCOLUMNS    : 1.0
#XUNITS      : keV
#YUNITS      : counts
#DATATYPE    : XY
#XPERCHAN    : 0.005
#OFFSET      : -0.2
#SIGNALTYPE  : EDS
#CHOFFSET    : 40.0
#LIVETIME    : 100.0
#REALTIME    : 117.29
#BEAMKV      : 20.0
#PROBECUR    : 0.40
#MAGCAM      : 35000.0
#XTILTSTGE   : 0.0
#AZIMANGLE   : 0.0
#ELEVANGLE   : 35.0
#XPOSITION mm: 1.6870
#YPOSITION mm: -1.6900
#ZPOSITION mm: 4.7660
##OXINSTPT   : 4
##OXINSTSTROB: 47.95
##OXINSTELEMS: 14,6
##OXINSTLABEL: 14, 1.740, Si
##OXINSTLABEL: 6, 0.277, C
#SPECTRUM    : Spectral Data Starts Here
-0.20000, 0.0
-0.13000, 0.0
-0.06000, 5.0
0.01000, 1611.0
0.08000, 797.0
0.15000, 87.0
0.22000, 68.0
0.29000, 128.0
0.36000, 72.0
0.43000, 107.0
0.50000, 162.0
0.57000, 159.0
0.64000, 209.0
0.71000, 286.0
0.78000, 323.0
0.85000, 423.0
0.92000, 458.0
0.99000, 494.0
1.06000, 554.0
1.13000, 547.0
1.20000, 554.0
1.27000, 602.0
1.34000, 629.0
1.41000, 671.0
1.48000, 765.0
1.55000, 917.0
1.62000, 995.0
1.69000, 30391.0
1.76000, 86290.0
1.83000, 8291.0
1.90000, 951.0
1.97000, 134.0
2.04000, 145.0
2.11000, 155.0
2.18000, 173.0
2.25000, 155.0
2.32000, 173.0
2.39000, 165.0
2.46000, 167.0
2.53000, 176.0
2.60000, 176.0
2.67000, 161.0
2.74000, 179.0
2.81000, 186.0
2.88000, 184.0
2.95000, 196.0
3.02000, 178.0
3.09000, 167.0
3.16000, 188.0
3.23000, 183.0
3.30000, 195.0
3.37000, 194.0
3.44000, 445.0
3.51000, 619.0
3.58000, 264.0
3.65000, 183.0
3.72000, 165.0
3.79000, 146.0
3.86000, 160.0
3.93000, 146.0
4.00000, 152.0
4.07000, 146.0
4.14000, 149.0
4.21000, 143.0
4.28000, 136.0
4.35000, 137.0
4.42000, 126.0
4.49000, 124.0
4.56000, 138.0
4.63000, 123.0
4.70000, 128.0
4.77000, 141.0
4.84000, 130.0
4.91000, 135.0
4.98000, 125.0
5.05000, 121.0
5.12000, 105.0
5.19000, 124.0
5.26000, 124.0
5.33000, 111.0
5.40000, 103.0
5.47000, 106.0
5.54000, 89.0
5.61000, 119.0
5.68000, 91.0
5.75000, 96.0
5.82000, 100.0
5.89000, 101.0
5.96000, 98.0
6.03000, 96.0
6.10000, 93.0
6.17000, 99.0
6.24000, 96.0
6.31000, 94.0
6.38000, 91.0
6.45000, 95.0
6.52000, 72.0
6.59000, 85.0
6.66000, 83.0
6.73000, 78.0
6.80000, 87.0
6.87000, 93.0
6.94000, 80.0
7.01000, 69.0
7.08000, 60.0
7.15000, 69.0
7.22000, 64.0
7.29000, 67.0
7.36000, 82.0
7.43000, 69.0
7.50000, 67.0
7.57000, 61.0
7.64000, 72.0
7.71000, 64.0
7.78000, 66.0
7.85000, 68.0
7.92000, 66.0
7.99000, 58.0
8.06000, 70.0
8.13000, 52.0
8.20000, 67.0
8.27000, 58.0
8.34000, 51.0
8.41000, 51.0
8.48000, 52.0
8.55000, 50.0
8.62000, 52.0
8.69000, 61.0
8.76000, 36.0
8.83000, 47.0
8.90000, 57.0
8.97000, 48.0
9.04000, 45.0
9.11000, 41.0
9.18000, 55.0
9.25000, 60.0
9.32000, 35.0
9.39000, 36.0
9.46000, 38.0
9.53000, 48.0
9.60000, 35.0
9.67000, 42.0
9.74000, 38.0
9.81000, 46.0
9.88000, 35.0
9.95000, 39.0
10.02000, 47.0
10.09000, 36.0
10.16000, 32.0
10.23000, 32.0
10.30000, 28.0
10.37000, 39.0
10.44000, 32.0
10.51000, 32.0
10.58000, 32.0
10.65000, 32.0
10.72000, 34.0
10.79000, 26.0
10.86000, 31.0
10.93000, 30.0
11.00000, 33.0
11.07000, 34.0
11.14000, 36.0
11.21000, 22.0
11.28000, 29.0
11.35000, 18.0
11.42000, 23.0
11.49000, 30.0
11.56000, 26.0
11.63000, 31.0
11.70000, 20.0
11.77000, 19.0
11.84000, 22.0
11.91000, 21.0
11.98000, 26.0
12.05000, 23.0
12.12000, 23.0
12.19000, 20.0
12.26000, 16.0
12.33000, 19.0
12.40000, 19.0
12.47000, 19.0
12.54000, 22.0
12.61000, 24.0
12.68000, 12.0
12.75000, 19.0
12.82000, 19.0
12.89000, 20.0
12.96000, 20.0
13.03000, 19.0
13.10000, 21.0
13.17000, 21.0
13.24000, 16.0
13.31000, 15.0
13.38000, 13.0
13.45000, 17.0
13.52000, 14.0
13.59000, 17.0
13.66000, 12.0
13.73000, 15.0
13.80000, 15.0
13.87000, 16.0
13.94000, 10.0
14.01000, 9.0
14.08000, 15.0
14.15000, 12.0
14.22000, 11.0
14.29000, 10.0
14.36000, 11.0
14.43000, 9.0
14.50000, 9.0
14.57000, 11.0
14.64000, 14.0
14.71000, 7.0
14.78000, 10.0
14.85000, 8.0
14.92000, 10.0
14.99000, 6.0
15.06000, 10.0
15.13000, 9.0
15.20000, 8.0
15.27000, 7.0
15.34000, 10.0
15.41000, 6.0
15.48000, 5.0
15.55000, 5.0
15.62000, 6.0
15.69000, 4.0
15.76000, 7.0
15.83000, 4.0
15.90000, 5.0
15.97000, 9.0
16.04000, 8.0
16.11000, 2.0
16.18000, 5.0
16.25000, 6.0
16.32000, 7.0
16.39000, 1.0
16.46000, 6.0
16.53000, 5.0
16.60000, 4.0
16.67000, 3.0
16.74000, 5.0
16.81000, 2.0
16.88000, 4.0
16.95000, 5.0
17.02000, 3.0
17.09000, 5.0
17.16000, 1.0
17.23000, 5.0
17.30000, 3.0
17.37000, 2.0
17.44000, 2.0
17.51000, 2.0
17.58000, 5.0
17.65000, 1.0
17.72000, 2.0
17.79000, 0.0
17.86000, 1.0
17.93000, 1.0
18.00000, 2.0
18.07000, 4.0
18.14000, 4.0
18.21000, 1.0
18.28000, 3.0
18.35000, 1.0
18.42000, 3.0
18.49000, 0.0
18.56000, 1.0
18.63000, 0.0
18.70000, 0.0
18.77000, 0.0
18.84000, 2.0
18.91000, 0.0
18.98000, 2.0
19.05000, 1.0
19.12000, 2.0
19.19000, 1.0
19.26000, 1.0
19.33000, 0.0
19.40000, 1.0
19.47000, 1.0
19.54000, 0.0
19.61000, 0.0
19.68000, 0.0
19.75000, 1.0
19.82000, 0.0
19.89000, 0.0
19.96000, 0.0
20.03000, 0.0
20.10000, 0.0
20.17000, 0.0
20.24000, 0.0
20.27500, 0.0
#ENDOFDATA   :