File: dat/msa/Si-Cal-20kV/Si-20kV-S5-P4-2K.msa
#FORMAT      : EMSA/MAS Spectral Data File
#VERSION     : 1.0
#TITLE       : Si-20kV-S5-P4-2K
#DATE        : 16-SEP-2016
#TIME        : 11:21
#OWNER       : John Minter
#NPOINTS     : 2048.0
#NCOLUMNS    : 1.0
#XUNITS      : keV
#YUNITS      : counts
#DATATYPE    : XY
#XPERCHAN    : 0.005
#OFFSET      : -0.1
#SIGNALTYPE  : EDS
#CHOFFSET    : 20.0
#LIVETIME    : 100.0
#REALTIME    : 194.479
#BEAMKV      : 20.0
#PROBECUR    : 3.49
#MAGCAM      : 8000.0
#XTILTSTGE   : 0.0
#AZIMANGLE   : 0.0
#ELEVANGLE   : 35.0
#XPOSITION mm: 1.6240
#YPOSITION mm: -1.3010
#ZPOSITION mm: 4.7660
##OXINSTPT   : 4
##OXINSTSTROB: 48.08
##OXINSTELEMS: 14,6,8
##OXINSTLABEL: 14, 1.740, Si
##OXINSTLABEL: 6, 0.277, C
##OXINSTLABEL: 8, 0.525, O
#SPECTRUM    : Spectral Data Starts Here
-0.10000, 0.0
-0.06500, 2.0
-0.03000, 201.0
0.00500, 1387.0
0.04000, 1361.0
0.07500, 1142.0
0.11000, 1420.0
0.14500, 381.0
0.18000, 211.0
0.21500, 217.0
0.25000, 462.0
0.28500, 555.0
0.32000, 267.0
0.35500, 240.0
0.39000, 290.0
0.42500, 390.0
0.46000, 522.0
0.49500, 660.0
0.53000, 797.0
0.56500, 681.0
0.60000, 754.0
0.63500, 888.0
0.67000, 1075.0
0.70500, 1154.0
0.74000, 1335.0
0.77500, 1423.0
0.81000, 1549.0
0.84500, 1665.0
0.88000, 1828.0
0.91500, 1875.0
0.95000, 2004.0
0.98500, 2058.0
1.02000, 2138.0
1.05500, 2248.0
1.09000, 2210.0
1.12500, 2335.0
1.16000, 2360.0
1.19500, 2391.0
1.23000, 2483.0
1.26500, 2445.0
1.30000, 2533.0
1.33500, 2611.0
1.37000, 2617.0
1.40500, 2727.0
1.44000, 2973.0
1.47500, 3240.0
1.51000, 3570.0
1.54500, 3698.0
1.58000, 3839.0
1.61500, 4039.0
1.65000, 13732.0
1.68500, 100267.0
1.72000, 323674.0
1.75500, 377279.0
1.79000, 164334.0
1.82500, 40704.0
1.86000, 15233.0
1.89500, 4910.0
1.93000, 1241.0
1.96500, 654.0
2.00000, 653.0
2.03500, 619.0
2.07000, 659.0
2.10500, 638.0
2.14000, 634.0
2.17500, 659.0
2.21000, 694.0
2.24500, 680.0
2.28000, 700.0
2.31500, 700.0
2.35000, 739.0
2.38500, 749.0
2.42000, 733.0
2.45500, 766.0
2.49000, 793.0
2.52500, 772.0
2.56000, 792.0
2.59500, 826.0
2.63000, 856.0
2.66500, 855.0
2.70000, 889.0
2.73500, 839.0
2.77000, 873.0
2.80500, 857.0
2.84000, 888.0
2.87500, 884.0
2.91000, 878.0
2.94500, 862.0
2.98000, 896.0
3.01500, 895.0
3.05000, 904.0
3.08500, 887.0
3.12000, 916.0
3.15500, 871.0
3.19000, 900.0
3.22500, 934.0
3.26000, 933.0
3.29500, 899.0
3.33000, 963.0
3.36500, 1077.0
3.40000, 2228.0
3.43500, 5600.0
3.47000, 9267.0
3.50500, 9120.0
3.54000, 5505.0
3.57500, 2682.0
3.61000, 1494.0
3.64500, 972.0
3.68000, 787.0
3.71500, 720.0
3.75000, 703.0
3.78500, 683.0
3.82000, 684.0
3.85500, 639.0
3.89000, 704.0
3.92500, 699.0
3.96000, 685.0
3.99500, 683.0
4.03000, 699.0
4.06500, 649.0
4.10000, 644.0
4.13500, 671.0
4.17000, 687.0
4.20500, 658.0
4.24000, 642.0
4.27500, 628.0
4.31000, 650.0
4.34500, 650.0
4.38000, 645.0
4.41500, 627.0
4.45000, 605.0
4.48500, 602.0
4.52000, 601.0
4.55500, 611.0
4.59000, 630.0
4.62500, 597.0
4.66000, 595.0
4.69500, 603.0
4.73000, 575.0
4.76500, 568.0
4.80000, 555.0
4.83500, 586.0
4.87000, 565.0
4.90500, 569.0
4.94000, 569.0
4.97500, 571.0
5.01000, 568.0
5.04500, 537.0
5.08000, 588.0
5.11500, 543.0
5.15000, 592.0
5.18500, 682.0
5.22000, 766.0
5.25500, 716.0
5.29000, 629.0
5.32500, 573.0
5.36000, 553.0
5.39500, 517.0
5.43000, 525.0
5.46500, 484.0
5.50000, 477.0
5.53500, 514.0
5.57000, 492.0
5.60500, 479.0
5.64000, 483.0
5.67500, 472.0
5.71000, 493.0
5.74500, 459.0
5.78000, 464.0
5.81500, 479.0
5.85000, 442.0
5.88500, 453.0
5.92000, 465.0
5.95500, 434.0
5.99000, 455.0
6.02500, 411.0
6.06000, 429.0
6.09500, 383.0
6.13000, 427.0
6.16500, 449.0
6.20000, 401.0
6.23500, 385.0
6.27000, 400.0
6.30500, 450.0
6.34000, 388.0
6.37500, 408.0
6.41000, 398.0
6.44500, 387.0
6.48000, 414.0
6.51500, 410.0
6.55000, 365.0
6.58500, 385.0
6.62000, 398.0
6.65500, 360.0
6.69000, 378.0
6.72500, 351.0
6.76000, 368.0
6.79500, 342.0
6.83000, 386.0
6.86500, 346.0
6.90000, 333.0
6.93500, 346.0
6.97000, 344.0
7.00500, 367.0
7.04000, 339.0
7.07500, 323.0
7.11000, 333.0
7.14500, 321.0
7.18000, 345.0
7.21500, 338.0
7.25000, 327.0
7.28500, 313.0
7.32000, 307.0
7.35500, 310.0
7.39000, 324.0
7.42500, 315.0
7.46000, 309.0
7.49500, 327.0
7.53000, 315.0
7.56500, 309.0
7.60000, 325.0
7.63500, 314.0
7.67000, 295.0
7.70500, 309.0
7.74000, 290.0
7.77500, 310.0
7.81000, 297.0
7.84500, 291.0
7.88000, 295.0
7.91500, 258.0
7.95000, 287.0
7.98500, 290.0
8.02000, 253.0
8.05500, 258.0
8.09000, 279.0
8.12500, 303.0
8.16000, 249.0
8.19500, 273.0
8.23000, 249.0
8.26500, 269.0
8.30000, 273.0
8.33500, 280.0
8.37000, 232.0
8.40500, 268.0
8.44000, 252.0
8.47500, 253.0
8.51000, 254.0
8.54500, 241.0
8.58000, 228.0
8.61500, 241.0
8.65000, 239.0
8.68500, 241.0
8.72000, 228.0
8.75500, 233.0
8.79000, 242.0
8.82500, 228.0
8.86000, 230.0
8.89500, 224.0
8.93000, 228.0
8.96500, 227.0
9.00000, 233.0
9.03500, 234.0
9.07000, 213.0
9.10500, 214.0
9.14000, 220.0
9.17500, 210.0
9.21000, 201.0
9.24500, 203.0
9.28000, 226.0
9.31500, 199.0
9.35000, 225.0
9.38500, 197.0
9.42000, 199.0
9.45500, 202.0
9.49000, 196.0
9.52500, 202.0
9.56000, 193.0
9.59500, 203.0
9.63000, 178.0
9.66500, 193.0
9.70000, 171.0
9.73500, 180.0
9.77000, 186.0
9.80500, 177.0
9.84000, 187.0
9.87500, 186.0
9.91000, 176.0
9.94500, 172.0
9.98000, 174.0
10.01500, 178.0
10.05000, 173.0
10.08500, 155.0
10.12000, 174.0
10.13500, 177.0
#ENDOFDATA   :