File: dat/msa/Si-Cal-5kV/qm-04963-Si-Pt4-0.35uA-5kV-HR-5mm.msa
#FORMAT      : EMSA/MAS Spectral Data File
#VERSION     : 1.0
#TITLE       : qm-04963-Si-Pt4-0.35uA-5kV-HR-5mm
#DATE        : 07-SEP-2016
#TIME        : 16:26
#OWNER       : John Minter
#NPOINTS     : 2048.0
#NCOLUMNS    : 1.0
#XUNITS      : keV
#YUNITS      : counts
#DATATYPE    : XY
#XPERCHAN    : 0.005
#OFFSET      : -0.1
#SIGNALTYPE  : EDS
#CHOFFSET    : 20.0
#LIVETIME    : 60.0
#REALTIME    : 60.8414
#BEAMKV      : 5.0
#PROBECUR    : 0.35
#MAGCAM      : 15000.0
#XTILTSTGE   : 0.0
#AZIMANGLE   : 0.0
#ELEVANGLE   : 35.0
#XPOSITION mm: 0.5450
#YPOSITION mm: 0.9940
#ZPOSITION mm: 4.9970
##OXINSTPT   : 4
##OXINSTSTROB: 47.84
##OXINSTELEMS: 14,6,8
##OXINSTLABEL: 14, 1.740, Si
##OXINSTLABEL: 6, 0.277, C
##OXINSTLABEL: 8, 0.525, O
#SPECTRUM    : Spectral Data Starts Here
-0.10000, 0.0
-0.06500, 2.0
-0.03000, 127.0
0.00500, 915.0
0.04000, 1480.0
0.07500, 582.0
0.11000, 271.0
0.14500, 40.0
0.18000, 22.0
0.21500, 36.0
0.25000, 56.0
0.28500, 79.0
0.32000, 29.0
0.35500, 35.0
0.39000, 47.0
0.42500, 49.0
0.46000, 65.0
0.49500, 94.0
0.53000, 94.0
0.56500, 80.0
0.60000, 73.0
0.63500, 59.0
0.67000, 73.0
0.70500, 81.0
0.74000, 87.0
0.77500, 77.0
0.81000, 74.0
0.84500, 82.0
0.88000, 79.0
0.91500, 73.0
0.95000, 63.0
0.98500, 62.0
1.02000, 73.0
1.05500, 62.0
1.09000, 73.0
1.12500, 75.0
1.16000, 56.0
1.19500, 67.0
1.23000, 65.0
1.26500, 71.0
1.30000, 48.0
1.33500, 51.0
1.37000, 45.0
1.40500, 57.0
1.44000, 59.0
1.47500, 50.0
1.51000, 58.0
1.54500, 58.0
1.58000, 54.0
1.61500, 50.0
1.65000, 114.0
1.68500, 803.0
1.72000, 2521.0
1.75500, 2968.0
1.79000, 1272.0
1.82500, 352.0
1.86000, 145.0
1.89500, 68.0
1.93000, 30.0
1.96500, 23.0
2.00000, 24.0
2.03500, 26.0
2.07000, 22.0
2.10500, 22.0
2.14000, 27.0
2.17500, 19.0
2.21000, 22.0
2.24500, 16.0
2.28000, 25.0
2.31500, 18.0
2.35000, 18.0
2.38500, 23.0
2.42000, 15.0
2.45500, 16.0
2.49000, 20.0
2.52500, 17.0
2.56000, 17.0
2.59500, 17.0
2.63000, 17.0
2.66500, 16.0
2.70000, 14.0
2.73500, 15.0
2.77000, 11.0
2.80500, 17.0
2.84000, 16.0
2.87500, 13.0
2.91000, 13.0
2.94500, 9.0
2.98000, 14.0
3.01500, 9.0
3.05000, 11.0
3.08500, 15.0
3.12000, 10.0
3.15500, 13.0
3.19000, 9.0
3.22500, 10.0
3.26000, 10.0
3.29500, 10.0
3.33000, 6.0
3.36500, 12.0
3.40000, 11.0
3.43500, 8.0
3.47000, 10.0
3.50500, 10.0
3.54000, 7.0
3.57500, 7.0
3.61000, 9.0
3.64500, 5.0
3.68000, 9.0
3.71500, 10.0
3.75000, 8.0
3.78500, 8.0
3.82000, 1.0
3.85500, 7.0
3.89000, 6.0
3.92500, 2.0
3.96000, 5.0
3.99500, 4.0
4.03000, 2.0
4.06500, 4.0
4.10000, 2.0
4.13500, 2.0
4.17000, 5.0
4.20500, 3.0
4.24000, 1.0
4.27500, 1.0
4.31000, 2.0
4.34500, 4.0
4.38000, 3.0
4.41500, 1.0
4.45000, 3.0
4.48500, 2.0
4.52000, 2.0
4.55500, 3.0
4.59000, 3.0
4.62500, 2.0
4.66000, 2.0
4.69500, 1.0
4.73000, 1.0
4.76500, 0.0
4.80000, 2.0
4.83500, 1.0
4.87000, 1.0
4.90500, 2.0
4.94000, 0.0
4.97500, 1.0
5.01000, 0.0
5.04500, 0.0
5.08000, 1.0
5.11500, 0.0
5.15000, 0.0
5.18500, 0.0
5.22000, 0.0
5.25500, 0.0
5.29000, 0.0
5.32500, 0.0
5.36000, 0.0
5.39500, 0.0
5.43000, 0.0
5.46500, 0.0
5.50000, 0.0
5.53500, 0.0
5.57000, 0.0
5.60500, 0.0
5.64000, 0.0
5.67500, 0.0
5.71000, 0.0
5.74500, 0.0
5.78000, 0.0
5.81500, 0.0
5.85000, 0.0
5.88500, 0.0
5.92000, 0.0
5.95500, 0.0
5.99000, 0.0
6.02500, 0.0
6.06000, 0.0
6.09500, 0.0
6.13000, 0.0
6.16500, 0.0
6.20000, 0.0
6.23500, 0.0
6.27000, 0.0
6.30500, 0.0
6.34000, 0.0
6.37500, 0.0
6.41000, 0.0
6.44500, 0.0
6.48000, 0.0
6.51500, 0.0
6.55000, 0.0
6.58500, 0.0
6.62000, 0.0
6.65500, 0.0
6.69000, 0.0
6.72500, 0.0
6.76000, 0.0
6.79500, 0.0
6.83000, 0.0
6.86500, 0.0
6.90000, 0.0
6.93500, 0.0
6.97000, 0.0
7.00500, 0.0
7.04000, 0.0
7.07500, 0.0
7.11000, 0.0
7.14500, 0.0
7.18000, 0.0
7.21500, 0.0
7.25000, 0.0
7.28500, 0.0
7.32000, 0.0
7.35500, 0.0
7.39000, 0.0
7.42500, 0.0
7.46000, 0.0
7.49500, 0.0
7.53000, 0.0
7.56500, 0.0
7.60000, 0.0
7.63500, 0.0
7.67000, 0.0
7.70500, 0.0
7.74000, 0.0
7.77500, 0.0
7.81000, 0.0
7.84500, 0.0
7.88000, 0.0
7.91500, 0.0
7.95000, 0.0
7.98500, 0.0
8.02000, 0.0
8.05500, 0.0
8.09000, 0.0
8.12500, 0.0
8.16000, 0.0
8.19500, 0.0
8.23000, 0.0
8.26500, 0.0
8.30000, 0.0
8.33500, 0.0
8.37000, 0.0
8.40500, 0.0
8.44000, 0.0
8.47500, 0.0
8.51000, 0.0
8.54500, 0.0
8.58000, 0.0
8.61500, 0.0
8.65000, 0.0
8.68500, 0.0
8.72000, 0.0
8.75500, 0.0
8.79000, 0.0
8.82500, 0.0
8.86000, 0.0
8.89500, 0.0
8.93000, 0.0
8.96500, 0.0
9.00000, 0.0
9.03500, 0.0
9.07000, 0.0
9.10500, 0.0
9.14000, 0.0
9.17500, 0.0
9.21000, 0.0
9.24500, 0.0
9.28000, 0.0
9.31500, 0.0
9.35000, 0.0
9.38500, 0.0
9.42000, 0.0
9.45500, 0.0
9.49000, 0.0
9.52500, 0.0
9.56000, 0.0
9.59500, 0.0
9.63000, 0.0
9.66500, 0.0
9.70000, 0.0
9.73500, 0.0
9.77000, 0.0
9.80500, 0.0
9.84000, 0.0
9.87500, 0.0
9.91000, 0.0
9.94500, 0.0
9.98000, 0.0
10.01500, 0.0
10.05000, 0.0
10.08500, 0.0
10.12000, 0.0
10.13500, 0.0
#ENDOFDATA   :