File: dat/msa/Cu-Cal-20kV/Cu-20kV-S5-P4-2K.msa
#FORMAT      : EMSA/MAS Spectral Data File
#VERSION     : 1.0
#TITLE       : Cu-20kV-S5-2K
#DATE        : 16-SEP-2016
#TIME        : 15:50
#OWNER       : John Minter
#NPOINTS     : 2048.0
#NCOLUMNS    : 1.0
#XUNITS      : keV
#YUNITS      : counts
#DATATYPE    : XY
#XPERCHAN    : 0.005
#OFFSET      : -0.1
#SIGNALTYPE  : EDS
#CHOFFSET    : 20.0
#LIVETIME    : 100.247
#REALTIME    : 169.326
#BEAMKV      : 20.0
#PROBECUR    : 3.74
#MAGCAM      : 5000.0
#XTILTSTGE   : 0.0
#AZIMANGLE   : 0.0
#ELEVANGLE   : 35.0
#XPOSITION mm: -0.0100
#YPOSITION mm: -0.2010
#ZPOSITION mm: 5.0000
##OXINSTPT   : 4
##OXINSTSTROB: 48.17
##OXINSTELEMS: 29,6,8
##OXINSTLABEL: 29, 8.048, Cu
##OXINSTLABEL: 29, 8.905, Cu
##OXINSTLABEL: 29, 0.930, Cu
##OXINSTLABEL: 29, 0.832, Cu
##OXINSTLABEL: 29, 0.811, Cu
##OXINSTLABEL: 6, 0.277, C
##OXINSTLABEL: 8, 0.525, O
#SPECTRUM    : Spectral Data Starts Here
-0.10000, 0.0
-0.06500, 2.0
-0.03000, 212.0
0.00500, 1413.0
0.04000, 1564.0
0.07500, 620.0
0.11000, 498.0
0.14500, 469.0
0.18000, 518.0
0.21500, 620.0
0.25000, 1356.0
0.28500, 1773.0
0.32000, 735.0
0.35500, 680.0
0.39000, 896.0
0.42500, 1076.0
0.46000, 1397.0
0.49500, 2067.0
0.53000, 2387.0
0.56500, 1955.0
0.60000, 2007.0
0.63500, 2342.0
0.67000, 2795.0
0.70500, 3352.0
0.74000, 4410.0
0.77500, 10479.0
0.81000, 20747.0
0.84500, 17845.0
0.88000, 42709.0
0.91500, 152041.0
0.95000, 151591.0
0.98500, 40069.0
1.02000, 4631.0
1.05500, 1494.0
1.09000, 1056.0
1.12500, 1028.0
1.16000, 1054.0
1.19500, 1116.0
1.23000, 1167.0
1.26500, 1172.0
1.30000, 1266.0
1.33500, 1255.0
1.37000, 1301.0
1.40500, 1358.0
1.44000, 1491.0
1.47500, 1697.0
1.51000, 1744.0
1.54500, 1594.0
1.58000, 1555.0
1.61500, 1559.0
1.65000, 1596.0
1.68500, 1745.0
1.72000, 1869.0
1.75500, 2006.0
1.79000, 2031.0
1.82500, 2531.0
1.86000, 2985.0
1.89500, 2696.0
1.93000, 1974.0
1.96500, 1739.0
2.00000, 1743.0
2.03500, 1759.0
2.07000, 1730.0
2.10500, 1802.0
2.14000, 1750.0
2.17500, 1760.0
2.21000, 1798.0
2.24500, 1843.0
2.28000, 1893.0
2.31500, 1891.0
2.35000, 1867.0
2.38500, 1878.0
2.42000, 1885.0
2.45500, 1824.0
2.49000, 1858.0
2.52500, 1912.0
2.56000, 1897.0
2.59500, 1886.0
2.63000, 1849.0
2.66500, 1882.0
2.70000, 1873.0
2.73500, 1788.0
2.77000, 1828.0
2.80500, 1849.0
2.84000, 1827.0
2.87500, 1803.0
2.91000, 1798.0
2.94500, 1841.0
2.98000, 1824.0
3.01500, 1772.0
3.05000, 1742.0
3.08500, 1791.0
3.12000, 1719.0
3.15500, 1743.0
3.19000, 1739.0
3.22500, 1648.0
3.26000, 1692.0
3.29500, 1735.0
3.33000, 1725.0
3.36500, 1654.0
3.40000, 1680.0
3.43500, 1649.0
3.47000, 1640.0
3.50500, 1624.0
3.54000, 1632.0
3.57500, 1599.0
3.61000, 1601.0
3.64500, 1540.0
3.68000, 1513.0
3.71500, 1546.0
3.75000, 1514.0
3.78500, 1560.0
3.82000, 1548.0
3.85500, 1484.0
3.89000, 1465.0
3.92500, 1462.0
3.96000, 1455.0
3.99500, 1449.0
4.03000, 1424.0
4.06500, 1458.0
4.10000, 1435.0
4.13500, 1419.0
4.17000, 1378.0
4.20500, 1403.0
4.24000, 1376.0
4.27500, 1354.0
4.31000, 1334.0
4.34500, 1337.0
4.38000, 1331.0
4.41500, 1299.0
4.45000, 1285.0
4.48500, 1322.0
4.52000, 1307.0
4.55500, 1237.0
4.59000, 1273.0
4.62500, 1213.0
4.66000, 1243.0
4.69500, 1188.0
4.73000, 1218.0
4.76500, 1241.0
4.80000, 1198.0
4.83500, 1206.0
4.87000, 1171.0
4.90500, 1153.0
4.94000, 1155.0
4.97500, 1177.0
5.01000, 1124.0
5.04500, 1068.0
5.08000, 1109.0
5.11500, 1113.0
5.15000, 1100.0
5.18500, 1088.0
5.22000, 1012.0
5.25500, 1053.0
5.29000, 1026.0
5.32500, 1022.0
5.36000, 1031.0
5.39500, 1012.0
5.43000, 1019.0
5.46500, 1048.0
5.50000, 1057.0
5.53500, 1053.0
5.57000, 977.0
5.60500, 1061.0
5.64000, 941.0
5.67500, 990.0
5.71000, 944.0
5.74500, 962.0
5.78000, 947.0
5.81500, 925.0
5.85000, 976.0
5.88500, 879.0
5.92000, 929.0
5.95500, 900.0
5.99000, 927.0
6.02500, 904.0
6.06000, 900.0
6.09500, 844.0
6.13000, 905.0
6.16500, 865.0
6.20000, 856.0
6.23500, 896.0
6.27000, 935.0
6.30500, 953.0
6.34000, 852.0
6.37500, 889.0
6.41000, 865.0
6.44500, 825.0
6.48000, 772.0
6.51500, 781.0
6.55000, 733.0
6.58500, 818.0
6.62000, 774.0
6.65500, 811.0
6.69000, 786.0
6.72500, 703.0
6.76000, 736.0
6.79500, 782.0
6.83000, 761.0
6.86500, 764.0
6.90000, 729.0
6.93500, 744.0
6.97000, 722.0
7.00500, 740.0
7.04000, 733.0
7.07500, 676.0
7.11000, 713.0
7.14500, 741.0
7.18000, 702.0
7.21500, 646.0
7.25000, 697.0
7.28500, 656.0
7.32000, 708.0
7.35500, 721.0
7.39000, 699.0
7.42500, 716.0
7.46000, 729.0
7.49500, 667.0
7.53000, 656.0
7.56500, 646.0
7.60000, 604.0
7.63500, 683.0
7.67000, 662.0
7.70500, 670.0
7.74000, 693.0
7.77500, 764.0
7.81000, 755.0
7.84500, 1069.0
7.88000, 2222.0
7.91500, 6038.0
7.95000, 14246.0
7.98500, 26254.0
8.02000, 35950.0
8.05500, 36551.0
8.09000, 27301.0
8.12500, 15231.0
8.16000, 6614.0
8.19500, 2473.0
8.23000, 1032.0
8.26500, 725.0
8.30000, 642.0
8.33500, 587.0
8.37000, 588.0
8.40500, 584.0
8.44000, 599.0
8.47500, 579.0
8.51000, 567.0
8.54500, 592.0
8.58000, 594.0
8.61500, 561.0
8.65000, 625.0
8.68500, 652.0
8.72000, 747.0
8.75500, 1089.0
8.79000, 1823.0
8.82500, 3192.0
8.86000, 4779.0
8.89500, 5723.0
8.93000, 5506.0
8.96500, 4249.0
9.00000, 2820.0
9.03500, 1604.0
9.07000, 948.0
9.10500, 639.0
9.14000, 464.0
9.17500, 435.0
9.21000, 422.0
9.24500, 407.0
9.28000, 406.0
9.31500, 404.0
9.35000, 428.0
9.38500, 408.0
9.42000, 388.0
9.45500, 424.0
9.49000, 406.0
9.52500, 398.0
9.56000, 411.0
9.59500, 405.0
9.63000, 411.0
9.66500, 422.0
9.70000, 423.0
9.73500, 451.0
9.77000, 483.0
9.80500, 524.0
9.84000, 487.0
9.87500, 494.0
9.91000, 446.0
9.94500, 423.0
9.98000, 376.0
10.01500, 361.0
10.05000, 369.0
10.08500, 363.0
10.12000, 354.0
10.13500, 387.0
#ENDOFDATA   :