File: dat/msa/Cu-Cal-20kV/Cu-20kV-S4-P4-2K.msa
#FORMAT      : EMSA/MAS Spectral Data File
#VERSION     : 1.0
#TITLE       : Cu-20kV-S4-P4-2K
#DATE        : 16-SEP-2016
#TIME        : 15:44
#OWNER       : John Minter
#NPOINTS     : 2048.0
#NCOLUMNS    : 1.0
#XUNITS      : keV
#YUNITS      : counts
#DATATYPE    : XY
#XPERCHAN    : 0.005
#OFFSET      : -0.1
#SIGNALTYPE  : EDS
#CHOFFSET    : 20.0
#LIVETIME    : 99.9738
#REALTIME    : 113.418
#BEAMKV      : 20.0
#PROBECUR    : 0.88
#MAGCAM      : 5000.0
#XTILTSTGE   : 0.0
#AZIMANGLE   : 0.0
#ELEVANGLE   : 35.0
#XPOSITION mm: -0.0160
#YPOSITION mm: -0.1610
#ZPOSITION mm: 5.0000
##OXINSTPT   : 4
##OXINSTSTROB: 47.97
##OXINSTELEMS: 29,6,8
##OXINSTLABEL: 29, 8.048, Cu
##OXINSTLABEL: 29, 8.905, Cu
##OXINSTLABEL: 29, 0.930, Cu
##OXINSTLABEL: 29, 0.832, Cu
##OXINSTLABEL: 29, 0.811, Cu
##OXINSTLABEL: 6, 0.277, C
##OXINSTLABEL: 8, 0.525, O
#SPECTRUM    : Spectral Data Starts Here
-0.10000, 0.0
-0.06500, 4.0
-0.03000, 240.0
0.00500, 1511.0
0.04000, 2268.0
0.07500, 736.0
0.11000, 165.0
0.14500, 122.0
0.18000, 143.0
0.21500, 160.0
0.25000, 333.0
0.28500, 470.0
0.32000, 182.0
0.35500, 181.0
0.39000, 224.0
0.42500, 291.0
0.46000, 347.0
0.49500, 474.0
0.53000, 596.0
0.56500, 438.0
0.60000, 492.0
0.63500, 550.0
0.67000, 711.0
0.70500, 798.0
0.74000, 1068.0
0.77500, 2471.0
0.81000, 4862.0
0.84500, 4227.0
0.88000, 10161.0
0.91500, 35965.0
0.95000, 36221.0
0.98500, 9480.0
1.02000, 1078.0
1.05500, 350.0
1.09000, 240.0
1.12500, 238.0
1.16000, 243.0
1.19500, 252.0
1.23000, 265.0
1.26500, 259.0
1.30000, 296.0
1.33500, 292.0
1.37000, 273.0
1.40500, 320.0
1.44000, 352.0
1.47500, 391.0
1.51000, 382.0
1.54500, 382.0
1.58000, 365.0
1.61500, 359.0
1.65000, 361.0
1.68500, 368.0
1.72000, 400.0
1.75500, 408.0
1.79000, 416.0
1.82500, 433.0
1.86000, 445.0
1.89500, 451.0
1.93000, 410.0
1.96500, 400.0
2.00000, 395.0
2.03500, 421.0
2.07000, 407.0
2.10500, 402.0
2.14000, 430.0
2.17500, 421.0
2.21000, 406.0
2.24500, 451.0
2.28000, 447.0
2.31500, 462.0
2.35000, 436.0
2.38500, 440.0
2.42000, 415.0
2.45500, 421.0
2.49000, 440.0
2.52500, 416.0
2.56000, 444.0
2.59500, 453.0
2.63000, 442.0
2.66500, 440.0
2.70000, 433.0
2.73500, 390.0
2.77000, 430.0
2.80500, 451.0
2.84000, 440.0
2.87500, 418.0
2.91000, 404.0
2.94500, 405.0
2.98000, 424.0
3.01500, 414.0
3.05000, 447.0
3.08500, 402.0
3.12000, 402.0
3.15500, 380.0
3.19000, 408.0
3.22500, 403.0
3.26000, 397.0
3.29500, 413.0
3.33000, 386.0
3.36500, 412.0
3.40000, 388.0
3.43500, 366.0
3.47000, 351.0
3.50500, 390.0
3.54000, 397.0
3.57500, 394.0
3.61000, 380.0
3.64500, 369.0
3.68000, 361.0
3.71500, 384.0
3.75000, 357.0
3.78500, 360.0
3.82000, 349.0
3.85500, 356.0
3.89000, 349.0
3.92500, 329.0
3.96000, 354.0
3.99500, 338.0
4.03000, 329.0
4.06500, 337.0
4.10000, 302.0
4.13500, 309.0
4.17000, 323.0
4.20500, 323.0
4.24000, 312.0
4.27500, 332.0
4.31000, 314.0
4.34500, 297.0
4.38000, 319.0
4.41500, 299.0
4.45000, 326.0
4.48500, 291.0
4.52000, 299.0
4.55500, 285.0
4.59000, 254.0
4.62500, 268.0
4.66000, 289.0
4.69500, 294.0
4.73000, 266.0
4.76500, 291.0
4.80000, 305.0
4.83500, 288.0
4.87000, 244.0
4.90500, 247.0
4.94000, 272.0
4.97500, 263.0
5.01000, 258.0
5.04500, 241.0
5.08000, 274.0
5.11500, 260.0
5.15000, 245.0
5.18500, 247.0
5.22000, 250.0
5.25500, 216.0
5.29000, 266.0
5.32500, 237.0
5.36000, 254.0
5.39500, 243.0
5.43000, 228.0
5.46500, 238.0
5.50000, 233.0
5.53500, 243.0
5.57000, 217.0
5.60500, 252.0
5.64000, 193.0
5.67500, 221.0
5.71000, 216.0
5.74500, 225.0
5.78000, 232.0
5.81500, 242.0
5.85000, 211.0
5.88500, 206.0
5.92000, 196.0
5.95500, 184.0
5.99000, 207.0
6.02500, 238.0
6.06000, 205.0
6.09500, 208.0
6.13000, 219.0
6.16500, 209.0
6.20000, 216.0
6.23500, 221.0
6.27000, 200.0
6.30500, 242.0
6.34000, 219.0
6.37500, 187.0
6.41000, 194.0
6.44500, 202.0
6.48000, 177.0
6.51500, 179.0
6.55000, 201.0
6.58500, 182.0
6.62000, 199.0
6.65500, 189.0
6.69000, 164.0
6.72500, 187.0
6.76000, 184.0
6.79500, 180.0
6.83000, 177.0
6.86500, 202.0
6.90000, 175.0
6.93500, 182.0
6.97000, 163.0
7.00500, 155.0
7.04000, 176.0
7.07500, 145.0
7.11000, 163.0
7.14500, 147.0
7.18000, 183.0
7.21500, 163.0
7.25000, 167.0
7.28500, 143.0
7.32000, 162.0
7.35500, 138.0
7.39000, 157.0
7.42500, 169.0
7.46000, 145.0
7.49500, 149.0
7.53000, 146.0
7.56500, 146.0
7.60000, 145.0
7.63500, 144.0
7.67000, 141.0
7.70500, 155.0
7.74000, 146.0
7.77500, 142.0
7.81000, 174.0
7.84500, 262.0
7.88000, 517.0
7.91500, 1470.0
7.95000, 3378.0
7.98500, 6191.0
8.02000, 8647.0
8.05500, 8644.0
8.09000, 6545.0
8.12500, 3585.0
8.16000, 1589.0
8.19500, 558.0
8.23000, 236.0
8.26500, 146.0
8.30000, 157.0
8.33500, 140.0
8.37000, 125.0
8.40500, 131.0
8.44000, 134.0
8.47500, 133.0
8.51000, 117.0
8.54500, 132.0
8.58000, 138.0
8.61500, 150.0
8.65000, 152.0
8.68500, 141.0
8.72000, 163.0
8.75500, 238.0
8.79000, 436.0
8.82500, 744.0
8.86000, 1114.0
8.89500, 1297.0
8.93000, 1166.0
8.96500, 882.0
9.00000, 502.0
9.03500, 298.0
9.07000, 170.0
9.10500, 104.0
9.14000, 95.0
9.17500, 89.0
9.21000, 95.0
9.24500, 90.0
9.28000, 97.0
9.31500, 98.0
9.35000, 85.0
9.38500, 82.0
9.42000, 86.0
9.45500, 95.0
9.49000, 79.0
9.52500, 86.0
9.56000, 85.0
9.59500, 81.0
9.63000, 89.0
9.66500, 94.0
9.70000, 86.0
9.73500, 91.0
9.77000, 101.0
9.80500, 99.0
9.84000, 80.0
9.87500, 95.0
9.91000, 89.0
9.94500, 89.0
9.98000, 91.0
10.01500, 94.0
10.05000, 77.0
10.08500, 84.0
10.12000, 88.0
10.13500, 83.0
#ENDOFDATA   :