File: dat/msa/Cu-Cal-20kV/Cu-20kV-S3-P4-2K.msa
#FORMAT      : EMSA/MAS Spectral Data File
#VERSION     : 1.0
#TITLE       : Cu-20kV-S3-2K
#DATE        : 16-SEP-2016
#TIME        : 16:01
#OWNER       : John Minter
#NPOINTS     : 2048.0
#NCOLUMNS    : 1.0
#XUNITS      : keV
#YUNITS      : counts
#DATATYPE    : XY
#XPERCHAN    : 0.005
#OFFSET      : -0.1
#SIGNALTYPE  : EDS
#CHOFFSET    : 20.0
#LIVETIME    : 100.585
#REALTIME    : 103.767
#BEAMKV      : 20.0
#PROBECUR    : 0.20
#MAGCAM      : 5000.0
#XTILTSTGE   : 0.0
#AZIMANGLE   : 0.0
#ELEVANGLE   : 35.0
#XPOSITION mm: -0.0200
#YPOSITION mm: -0.2010
#ZPOSITION mm: 5.0000
##OXINSTPT   : 4
##OXINSTSTROB: 47.89
##OXINSTELEMS: 29,6,8
##OXINSTLABEL: 29, 8.048, Cu
##OXINSTLABEL: 29, 8.905, Cu
##OXINSTLABEL: 29, 0.930, Cu
##OXINSTLABEL: 29, 0.832, Cu
##OXINSTLABEL: 29, 0.811, Cu
##OXINSTLABEL: 6, 0.277, C
##OXINSTLABEL: 8, 0.525, O
#SPECTRUM    : Spectral Data Starts Here
-0.10000, 0.0
-0.06500, 3.0
-0.03000, 219.0
0.00500, 1474.0
0.04000, 2396.0
0.07500, 766.0
0.11000, 47.0
0.14500, 29.0
0.18000, 28.0
0.21500, 36.0
0.25000, 98.0
0.28500, 110.0
0.32000, 37.0
0.35500, 32.0
0.39000, 48.0
0.42500, 59.0
0.46000, 74.0
0.49500, 112.0
0.53000, 125.0
0.56500, 98.0
0.60000, 113.0
0.63500, 137.0
0.67000, 156.0
0.70500, 186.0
0.74000, 245.0
0.77500, 582.0
0.81000, 1094.0
0.84500, 982.0
0.88000, 2292.0
0.91500, 8249.0
0.95000, 8245.0
0.98500, 2146.0
1.02000, 267.0
1.05500, 82.0
1.09000, 56.0
1.12500, 51.0
1.16000, 63.0
1.19500, 74.0
1.23000, 62.0
1.26500, 55.0
1.30000, 60.0
1.33500, 65.0
1.37000, 77.0
1.40500, 72.0
1.44000, 81.0
1.47500, 90.0
1.51000, 90.0
1.54500, 84.0
1.58000, 73.0
1.61500, 72.0
1.65000, 73.0
1.68500, 90.0
1.72000, 85.0
1.75500, 93.0
1.79000, 96.0
1.82500, 90.0
1.86000, 89.0
1.89500, 86.0
1.93000, 93.0
1.96500, 82.0
2.00000, 78.0
2.03500, 98.0
2.07000, 100.0
2.10500, 89.0
2.14000, 89.0
2.17500, 101.0
2.21000, 99.0
2.24500, 95.0
2.28000, 105.0
2.31500, 103.0
2.35000, 102.0
2.38500, 95.0
2.42000, 96.0
2.45500, 103.0
2.49000, 102.0
2.52500, 97.0
2.56000, 109.0
2.59500, 104.0
2.63000, 103.0
2.66500, 97.0
2.70000, 102.0
2.73500, 102.0
2.77000, 121.0
2.80500, 95.0
2.84000, 93.0
2.87500, 92.0
2.91000, 97.0
2.94500, 85.0
2.98000, 87.0
3.01500, 83.0
3.05000, 87.0
3.08500, 85.0
3.12000, 101.0
3.15500, 93.0
3.19000, 94.0
3.22500, 88.0
3.26000, 100.0
3.29500, 94.0
3.33000, 80.0
3.36500, 94.0
3.40000, 87.0
3.43500, 87.0
3.47000, 104.0
3.50500, 76.0
3.54000, 94.0
3.57500, 89.0
3.61000, 87.0
3.64500, 78.0
3.68000, 71.0
3.71500, 79.0
3.75000, 78.0
3.78500, 88.0
3.82000, 75.0
3.85500, 78.0
3.89000, 68.0
3.92500, 88.0
3.96000, 69.0
3.99500, 70.0
4.03000, 80.0
4.06500, 69.0
4.10000, 70.0
4.13500, 66.0
4.17000, 76.0
4.20500, 85.0
4.24000, 67.0
4.27500, 72.0
4.31000, 65.0
4.34500, 72.0
4.38000, 62.0
4.41500, 58.0
4.45000, 69.0
4.48500, 68.0
4.52000, 82.0
4.55500, 62.0
4.59000, 72.0
4.62500, 76.0
4.66000, 75.0
4.69500, 62.0
4.73000, 56.0
4.76500, 63.0
4.80000, 58.0
4.83500, 62.0
4.87000, 61.0
4.90500, 56.0
4.94000, 54.0
4.97500, 54.0
5.01000, 58.0
5.04500, 53.0
5.08000, 66.0
5.11500, 50.0
5.15000, 57.0
5.18500, 54.0
5.22000, 55.0
5.25500, 46.0
5.29000, 54.0
5.32500, 43.0
5.36000, 58.0
5.39500, 48.0
5.43000, 49.0
5.46500, 61.0
5.50000, 46.0
5.53500, 44.0
5.57000, 60.0
5.60500, 45.0
5.64000, 46.0
5.67500, 44.0
5.71000, 48.0
5.74500, 54.0
5.78000, 49.0
5.81500, 49.0
5.85000, 56.0
5.88500, 50.0
5.92000, 43.0
5.95500, 46.0
5.99000, 53.0
6.02500, 32.0
6.06000, 40.0
6.09500, 49.0
6.13000, 54.0
6.16500, 35.0
6.20000, 48.0
6.23500, 43.0
6.27000, 39.0
6.30500, 47.0
6.34000, 39.0
6.37500, 43.0
6.41000, 31.0
6.44500, 34.0
6.48000, 51.0
6.51500, 38.0
6.55000, 48.0
6.58500, 47.0
6.62000, 41.0
6.65500, 41.0
6.69000, 39.0
6.72500, 33.0
6.76000, 45.0
6.79500, 27.0
6.83000, 33.0
6.86500, 30.0
6.90000, 29.0
6.93500, 50.0
6.97000, 47.0
7.00500, 35.0
7.04000, 32.0
7.07500, 38.0
7.11000, 44.0
7.14500, 43.0
7.18000, 41.0
7.21500, 34.0
7.25000, 25.0
7.28500, 43.0
7.32000, 33.0
7.35500, 42.0
7.39000, 35.0
7.42500, 29.0
7.46000, 33.0
7.49500, 30.0
7.53000, 30.0
7.56500, 38.0
7.60000, 33.0
7.63500, 26.0
7.67000, 37.0
7.70500, 32.0
7.74000, 46.0
7.77500, 32.0
7.81000, 42.0
7.84500, 59.0
7.88000, 117.0
7.91500, 328.0
7.95000, 765.0
7.98500, 1432.0
8.02000, 1997.0
8.05500, 1977.0
8.09000, 1457.0
8.12500, 847.0
8.16000, 339.0
8.19500, 125.0
8.23000, 55.0
8.26500, 28.0
8.30000, 29.0
8.33500, 22.0
8.37000, 32.0
8.40500, 26.0
8.44000, 30.0
8.47500, 30.0
8.51000, 27.0
8.54500, 38.0
8.58000, 26.0
8.61500, 28.0
8.65000, 32.0
8.68500, 36.0
8.72000, 46.0
8.75500, 50.0
8.79000, 101.0
8.82500, 157.0
8.86000, 251.0
8.89500, 276.0
8.93000, 261.0
8.96500, 205.0
9.00000, 106.0
9.03500, 65.0
9.07000, 31.0
9.10500, 29.0
9.14000, 24.0
9.17500, 24.0
9.21000, 21.0
9.24500, 22.0
9.28000, 20.0
9.31500, 18.0
9.35000, 16.0
9.38500, 23.0
9.42000, 16.0
9.45500, 21.0
9.49000, 24.0
9.52500, 13.0
9.56000, 18.0
9.59500, 21.0
9.63000, 18.0
9.66500, 20.0
9.70000, 19.0
9.73500, 16.0
9.77000, 21.0
9.80500, 19.0
9.84000, 19.0
9.87500, 16.0
9.91000, 19.0
9.94500, 16.0
9.98000, 19.0
10.01500, 22.0
10.05000, 18.0
10.08500, 15.0
10.12000, 19.0
10.13500, 16.0
#ENDOFDATA   :